# Theta (deg), Enclosed Intensity, Normalized Enclosed Intensity
0.00000000 0.00000000 0.00000000
0.10000000 26.84291652 0.04662203
0.20000000 42.68357604 0.07413483
0.30000000 58.08729172 0.10088873
0.40000000 73.88787076 0.12833191
0.50000000 89.52940116 0.15549885
0.60000000 97.45083668 0.16925717
0.70000000 125.81437572 0.21852029
0.80000000 133.60519380 0.23205175
0.90000000 133.60519380 0.23205175
1.00000000 133.60519380 0.23205175
1.10000000 153.99741332 0.26746991
1.20000000 169.77701296 0.29487666
1.30000000 176.89294368 0.30723594
1.40000000 176.89294368 0.30723594
1.50000000 184.68735680 0.32077364
1.60000000 211.59322136 0.36750500
1.70000000 219.46985256 0.38118551
1.80000000 219.46985256 0.38118551
1.90000000 226.47366744 0.39335006
2.00000000 226.47366744 0.39335006
2.10000000 232.82031792 0.40437322
2.20000000 248.53903160 0.43167422
2.30000000 263.98345240 0.45849881
2.40000000 263.98345240 0.45849881
2.50000000 271.88041792 0.47221463
2.60000000 271.88041792 0.47221463
2.70000000 302.68174784 0.52571182
2.80000000 302.68174784 0.52571182
2.90000000 307.79964400 0.53460082
3.00000000 315.57071648 0.54809798
3.10000000 315.57071648 0.54809798
3.20000000 322.84274896 0.56072839
3.30000000 322.84274896 0.56072839
3.40000000 322.84274896 0.56072839
3.50000000 322.84274896 0.56072839
3.60000000 322.84274896 0.56072839
3.70000000 324.74992960 0.56404087
3.80000000 331.53595616 0.57582716
3.90000000 331.53595616 0.57582716
4.00000000 331.53595616 0.57582716
4.10000000 339.36200080 0.58941980
4.20000000 339.36200080 0.58941980
4.30000000 339.36200080 0.58941980
4.40000000 339.36200080 0.58941980
4.50000000 339.36200080 0.58941980
4.60000000 339.36200080 0.58941980
4.70000000 339.36200080 0.58941980
4.80000000 339.36200080 0.58941980
4.90000000 341.54624740 0.59321350
5.00000000 341.54624740 0.59321350
5.10000000 346.48338116 0.60178854
5.20000000 363.22762412 0.63087073
5.30000000 363.22762412 0.63087073
5.40000000 363.22762412 0.63087073
5.50000000 378.77014188 0.65786570
5.60000000 378.77014188 0.65786570
5.70000000 378.77014188 0.65786570
5.80000000 378.77014188 0.65786570
5.90000000 397.77691236 0.69087755
6.00000000 405.38048700 0.70408379
6.10000000 410.65945524 0.71325255
6.20000000 410.65945524 0.71325255
6.30000000 410.65945524 0.71325255
6.40000000 410.65945524 0.71325255
6.50000000 417.58047156 0.72527330
6.60000000 417.58047156 0.72527330
6.70000000 427.86429164 0.74313472
6.80000000 427.86429164 0.74313472
6.90000000 427.86429164 0.74313472
7.00000000 427.86429164 0.74313472
7.10000000 427.86429164 0.74313472
7.20000000 427.86429164 0.74313472
7.30000000 435.23719580 0.75594032
7.40000000 435.23719580 0.75594032
7.50000000 435.38397604 0.75619526
7.60000000 435.58036040 0.75653635
7.70000000 435.58036040 0.75653635
7.80000000 435.58036040 0.75653635
7.90000000 435.58036040 0.75653635
8.00000000 435.58036040 0.75653635
8.10000000 435.58036040 0.75653635
8.20000000 443.04423256 0.76949995
8.30000000 444.48753280 0.77200674
8.40000000 444.48753280 0.77200674
8.50000000 444.48753280 0.77200674
8.60000000 444.48753280 0.77200674
8.70000000 451.42616208 0.78405807
8.80000000 451.42616208 0.78405807
8.90000000 451.42616208 0.78405807
9.00000000 451.42616208 0.78405807
9.10000000 451.42616208 0.78405807
9.20000000 451.42616208 0.78405807
9.30000000 451.42616208 0.78405807
9.40000000 451.70656344 0.78454509
9.50000000 451.70656344 0.78454509
9.60000000 457.64989208 0.79486774
9.70000000 457.64989208 0.79486774
9.80000000 464.76017128 0.80721721
9.90000000 464.76017128 0.80721721
10.00000000 464.76017128 0.80721721
10.10000000 464.79029552 0.80726953
10.20000000 464.79029552 0.80726953
10.30000000 464.79029552 0.80726953
10.40000000 464.79029552 0.80726953
10.50000000 464.79029552 0.80726953
10.60000000 464.79029552 0.80726953
10.70000000 464.79029552 0.80726953
10.80000000 464.79029552 0.80726953
10.90000000 464.79029552 0.80726953
11.00000000 464.79029552 0.80726953
11.10000000 464.79029552 0.80726953
11.20000000 471.13041736 0.81828135
11.30000000 471.13041736 0.81828135
11.40000000 471.13041736 0.81828135
11.50000000 471.13041736 0.81828135
11.60000000 471.13041736 0.81828135
11.70000000 471.13041736 0.81828135
11.80000000 471.13041736 0.81828135
11.90000000 471.13041736 0.81828135
12.00000000 471.13041736 0.81828135
12.10000000 471.13041736 0.81828135
12.20000000 471.13041736 0.81828135
12.30000000 471.13041736 0.81828135
12.40000000 471.13041736 0.81828135
12.50000000 471.13041736 0.81828135
12.60000000 471.13041736 0.81828135
12.70000000 471.13041736 0.81828135
12.80000000 471.13041736 0.81828135
12.90000000 471.13041736 0.81828135
13.00000000 471.13041736 0.81828135
13.10000000 471.13041736 0.81828135
13.20000000 471.13041736 0.81828135
13.30000000 471.13041736 0.81828135
13.40000000 471.13041736 0.81828135
13.50000000 471.13041736 0.81828135
13.60000000 471.13041736 0.81828135
13.70000000 471.13041736 0.81828135
13.80000000 471.13041736 0.81828135
13.90000000 471.13041736 0.81828135
14.00000000 471.13041736 0.81828135
14.10000000 471.13041736 0.81828135
14.20000000 471.13041736 0.81828135
14.30000000 471.20188952 0.81840548
14.40000000 473.28723104 0.82202740
14.50000000 473.28723104 0.82202740
14.60000000 473.28723104 0.82202740
14.70000000 473.46873140 0.82234264
14.80000000 473.46873140 0.82234264
14.90000000 473.46873140 0.82234264
15.00000000 473.46873140 0.82234264
15.10000000 484.52473380 0.84154522
15.20000000 484.54067452 0.84157291
15.30000000 484.54067452 0.84157291
15.40000000 484.56757020 0.84161962
15.50000000 484.56757020 0.84161962
15.60000000 484.56757020 0.84161962
15.70000000 484.56757020 0.84161962
15.80000000 484.56757020 0.84161962
15.90000000 484.56757020 0.84161962
16.00000000 484.56757020 0.84161962
16.10000000 484.56757020 0.84161962
16.20000000 484.56757020 0.84161962
16.30000000 484.61531308 0.84170254
16.40000000 484.61531308 0.84170254
16.50000000 484.61531308 0.84170254
16.60000000 484.61531308 0.84170254
16.70000000 490.57621196 0.85205571
16.80000000 490.57621196 0.85205571
16.90000000 490.57621196 0.85205571
17.00000000 490.57621196 0.85205571
17.10000000 490.57621196 0.85205571
17.20000000 490.57621196 0.85205571
17.30000000 490.57621196 0.85205571
17.40000000 490.57621196 0.85205571
17.50000000 490.57621196 0.85205571
17.60000000 490.57621196 0.85205571
17.70000000 490.57621196 0.85205571
17.80000000 490.57621196 0.85205571
17.90000000 490.57621196 0.85205571
18.00000000 496.86131540 0.86297197
18.10000000 500.37327348 0.86907171
18.20000000 500.37327348 0.86907171
18.30000000 500.37327348 0.86907171
18.40000000 500.37327348 0.86907171
18.50000000 500.37327348 0.86907171
18.60000000 500.37327348 0.86907171
18.70000000 500.37327348 0.86907171
18.80000000 500.37327348 0.86907171
18.90000000 500.37327348 0.86907171
19.00000000 500.37327348 0.86907171
19.10000000 500.37327348 0.86907171
19.20000000 500.37327348 0.86907171
19.30000000 500.37327348 0.86907171
19.40000000 500.37327348 0.86907171
19.50000000 500.37327348 0.86907171
19.60000000 500.37327348 0.86907171
19.70000000 500.37327348 0.86907171
19.80000000 500.37327348 0.86907171
19.90000000 500.37327348 0.86907171
20.00000000 500.37327348 0.86907171
20.10000000 500.37327348 0.86907171
20.20000000 501.20742516 0.87052050
20.30000000 501.20742516 0.87052050
20.40000000 501.20742516 0.87052050
20.50000000 501.20742516 0.87052050
20.60000000 501.23077884 0.87056106
20.70000000 505.59005140 0.87813245
20.80000000 505.59005140 0.87813245
20.90000000 505.59005140 0.87813245
21.00000000 505.59005140 0.87813245
21.10000000 505.59005140 0.87813245
21.20000000 505.59005140 0.87813245
21.30000000 505.59005140 0.87813245
21.40000000 505.59005140 0.87813245
21.50000000 505.59005140 0.87813245
21.60000000 505.61402436 0.87817409
21.70000000 505.61402436 0.87817409
21.80000000 505.62104524 0.87818628
21.90000000 505.62104524 0.87818628
22.00000000 505.62104524 0.87818628
22.10000000 505.62104524 0.87818628
22.20000000 505.62538772 0.87819383
22.30000000 505.62538772 0.87819383
22.40000000 505.62538772 0.87819383
22.50000000 505.62538772 0.87819383
22.60000000 505.62538772 0.87819383
22.70000000 510.66155460 0.88694088
22.80000000 511.19952516 0.88787525
22.90000000 511.19952516 0.88787525
23.00000000 511.19952516 0.88787525
23.10000000 511.19952516 0.88787525
23.20000000 511.19952516 0.88787525
23.30000000 511.19952516 0.88787525
23.40000000 511.19952516 0.88787525
23.50000000 511.26621460 0.88799108
23.60000000 511.26621460 0.88799108
23.70000000 511.26621460 0.88799108
23.80000000 511.26621460 0.88799108
23.90000000 511.26621460 0.88799108
24.00000000 511.35837604 0.88815115
24.10000000 514.21864780 0.89311900
24.20000000 514.21864780 0.89311900
24.30000000 514.29029836 0.89324345
24.40000000 514.29029836 0.89324345
24.50000000 514.29029836 0.89324345
24.60000000 514.29029836 0.89324345
24.70000000 514.29029836 0.89324345
24.80000000 514.29029836 0.89324345
24.90000000 514.29029836 0.89324345
25.00000000 514.29029836 0.89324345
25.10000000 514.29029836 0.89324345
25.20000000 514.30813724 0.89327443
25.30000000 514.30813724 0.89327443
25.40000000 514.30813724 0.89327443
25.50000000 514.30813724 0.89327443
25.60000000 514.30813724 0.89327443
25.70000000 514.31816284 0.89329184
25.80000000 514.31816284 0.89329184
25.90000000 514.31816284 0.89329184
26.00000000 514.31816284 0.89329184
26.10000000 514.34698636 0.89334191
26.20000000 514.34698636 0.89334191
26.30000000 514.34698636 0.89334191
26.40000000 514.34698636 0.89334191
26.50000000 514.34698636 0.89334191
26.60000000 514.39487764 0.89342509
26.70000000 514.39487764 0.89342509
26.80000000 514.39487764 0.89342509
26.90000000 514.39487764 0.89342509
27.00000000 514.39487764 0.89342509
27.10000000 514.39487764 0.89342509
27.20000000 514.39487764 0.89342509
27.30000000 514.39487764 0.89342509
27.40000000 514.39487764 0.89342509
27.50000000 514.39487764 0.89342509
27.60000000 514.42505444 0.89347750
27.70000000 514.53600244 0.89367020
27.80000000 514.53600244 0.89367020
27.90000000 514.77127588 0.89407883
28.00000000 514.77127588 0.89407883
28.10000000 514.82041292 0.89416418
28.20000000 514.84399412 0.89420513
28.30000000 514.84399412 0.89420513
28.40000000 514.84399412 0.89420513
28.50000000 514.84399412 0.89420513
28.60000000 517.31592204 0.89849849
28.70000000 517.31592204 0.89849849
28.80000000 517.31592204 0.89849849
28.90000000 517.31592204 0.89849849
29.00000000 517.31592204 0.89849849
29.10000000 517.31592204 0.89849849
29.20000000 517.31592204 0.89849849
29.30000000 517.36090484 0.89857662
29.40000000 518.01501164 0.89971270
29.50000000 518.01501164 0.89971270
29.60000000 518.01501164 0.89971270
29.70000000 518.01713556 0.89971639
29.80000000 518.06301684 0.89979608
29.90000000 518.06301684 0.89979608
30.00000000 518.06301684 0.89979608
30.10000000 518.06754068 0.89980394
30.20000000 518.21425108 0.90005875
30.30000000 518.21425108 0.90005875
30.40000000 518.57467724 0.90068476
30.50000000 518.57467724 0.90068476
30.60000000 518.57467724 0.90068476
30.70000000 518.57591756 0.90068691
30.80000000 518.57591756 0.90068691
30.90000000 518.57591756 0.90068691
31.00000000 518.58285988 0.90069897
31.10000000 518.58285988 0.90069897
31.20000000 518.58979256 0.90071101
31.30000000 518.58979256 0.90071101
31.40000000 518.58979256 0.90071101
31.50000000 518.58979256 0.90071101
31.60000000 518.58979256 0.90071101
31.70000000 518.58979256 0.90071101
31.80000000 518.58979256 0.90071101
31.90000000 518.58979256 0.90071101
32.00000000 518.58979256 0.90071101
32.10000000 518.60207696 0.90073235
32.20000000 518.60207696 0.90073235
32.30000000 518.60207696 0.90073235
32.40000000 518.60207696 0.90073235
32.50000000 518.60352760 0.90073487
32.60000000 518.60352760 0.90073487
32.70000000 518.60352760 0.90073487
32.80000000 518.60352760 0.90073487
32.90000000 518.60525236 0.90073786
33.00000000 518.60618020 0.90073947
33.10000000 518.60618020 0.90073947
33.20000000 518.60618020 0.90073947
33.30000000 518.60618020 0.90073947
33.40000000 518.60618020 0.90073947
33.50000000 518.60618020 0.90073947
33.60000000 518.60715060 0.90074116
33.70000000 518.60715060 0.90074116
33.80000000 518.60715060 0.90074116
33.90000000 518.60715060 0.90074116
34.00000000 518.60715060 0.90074116
34.10000000 518.60715060 0.90074116
34.20000000 518.60715060 0.90074116
34.30000000 518.60715060 0.90074116
34.40000000 518.60715060 0.90074116
34.50000000 518.60715060 0.90074116
34.60000000 518.60715060 0.90074116
34.70000000 518.60715060 0.90074116
34.80000000 518.61099172 0.90074783
34.90000000 518.61099172 0.90074783
35.00000000 518.61099172 0.90074783
35.10000000 518.61099172 0.90074783
35.20000000 518.61099172 0.90074783
35.30000000 518.61099172 0.90074783
35.40000000 518.61099172 0.90074783
35.50000000 518.61099172 0.90074783
35.60000000 518.61099172 0.90074783
35.70000000 518.61099172 0.90074783
35.80000000 518.61099172 0.90074783
35.90000000 518.64726516 0.90081083
36.00000000 518.64726516 0.90081083
36.10000000 518.64907872 0.90081398
36.20000000 518.64907872 0.90081398
36.30000000 518.64907872 0.90081398
36.40000000 518.64907872 0.90081398
36.50000000 518.64907872 0.90081398
36.60000000 518.65259424 0.90082009
36.70000000 518.65259424 0.90082009
36.80000000 518.65259424 0.90082009
36.90000000 518.65259424 0.90082009
37.00000000 518.65259424 0.90082009
37.10000000 518.65259424 0.90082009
37.20000000 518.65259424 0.90082009
37.30000000 518.65259424 0.90082009
37.40000000 518.65259424 0.90082009
37.50000000 518.65259424 0.90082009
37.60000000 518.86654800 0.90119169
37.70000000 518.86654800 0.90119169
37.80000000 518.86654800 0.90119169
37.90000000 518.87157088 0.90120042
38.00000000 518.87157088 0.90120042
38.10000000 518.87157088 0.90120042
38.20000000 518.87157088 0.90120042
38.30000000 518.87157088 0.90120042
38.40000000 518.87157088 0.90120042
38.50000000 518.88904752 0.90123077
38.60000000 518.88904752 0.90123077
38.70000000 518.88904752 0.90123077
38.80000000 518.88904752 0.90123077
38.90000000 518.88904752 0.90123077
39.00000000 518.89058312 0.90123344
39.10000000 518.89058312 0.90123344
39.20000000 518.89058312 0.90123344
39.30000000 518.89058312 0.90123344
39.40000000 518.89058312 0.90123344
39.50000000 518.89058312 0.90123344
39.60000000 518.89058312 0.90123344
39.70000000 518.89058312 0.90123344
39.80000000 518.89058312 0.90123344
39.90000000 518.89058312 0.90123344
40.00000000 518.89058312 0.90123344
40.10000000 518.91780128 0.90128071
40.20000000 518.91780128 0.90128071
40.30000000 518.91780128 0.90128071
40.40000000 518.92135828 0.90128689
40.50000000 518.92135828 0.90128689
40.60000000 518.92135828 0.90128689
40.70000000 518.92135828 0.90128689
40.80000000 518.92135828 0.90128689
40.90000000 518.92135828 0.90128689
41.00000000 518.92135828 0.90128689
41.10000000 518.92135828 0.90128689
41.20000000 518.92135828 0.90128689
41.30000000 518.92566628 0.90129437
41.40000000 518.92566628 0.90129437
41.50000000 518.92566628 0.90129437
41.60000000 518.92566628 0.90129437
41.70000000 518.92907584 0.90130029
41.80000000 518.92907584 0.90130029
41.90000000 518.92998576 0.90130187
42.00000000 518.92998576 0.90130187
42.10000000 518.93203240 0.90130543
42.20000000 518.93203240 0.90130543
42.30000000 518.93203240 0.90130543
42.40000000 518.93203240 0.90130543
42.50000000 518.93203240 0.90130543
42.60000000 518.93203240 0.90130543
42.70000000 518.93318640 0.90130743
42.80000000 519.64712664 0.90254744
42.90000000 519.64712664 0.90254744
43.00000000 519.64712664 0.90254744
43.10000000 519.67461528 0.90259518
43.20000000 519.67461528 0.90259518
43.30000000 519.67461528 0.90259518
43.40000000 519.67461528 0.90259518
43.50000000 519.67461528 0.90259518
43.60000000 519.67461528 0.90259518
43.70000000 519.67461528 0.90259518
43.80000000 519.67749368 0.90260018
43.90000000 519.67749368 0.90260018
44.00000000 519.67749368 0.90260018
44.10000000 519.67749368 0.90260018
44.20000000 519.67749368 0.90260018
44.30000000 519.67749368 0.90260018
44.40000000 519.67749368 0.90260018
44.50000000 519.67749368 0.90260018
44.60000000 519.67749368 0.90260018
44.70000000 519.67749368 0.90260018
44.80000000 519.67749368 0.90260018
44.90000000 519.68935040 0.90262077
45.00000000 519.68935040 0.90262077
45.10000000 519.68935040 0.90262077
45.20000000 519.68935040 0.90262077
45.30000000 519.68935040 0.90262077
45.40000000 519.68935040 0.90262077
45.50000000 519.68935040 0.90262077
45.60000000 519.68935040 0.90262077
45.70000000 519.68935040 0.90262077
45.80000000 519.68935040 0.90262077
45.90000000 519.68935040 0.90262077
46.00000000 519.68935040 0.90262077
46.10000000 519.69225112 0.90262581
46.20000000 519.69225112 0.90262581
46.30000000 519.69225112 0.90262581
46.40000000 519.69225112 0.90262581
46.50000000 519.69225112 0.90262581
46.60000000 519.69225112 0.90262581
46.70000000 519.69225112 0.90262581
46.80000000 519.69225112 0.90262581
46.90000000 519.69225112 0.90262581
47.00000000 519.90496328 0.90299526
47.10000000 519.90496328 0.90299526
47.20000000 519.90496328 0.90299526
47.30000000 519.90724256 0.90299922
47.40000000 519.90724256 0.90299922
47.50000000 519.90724256 0.90299922
47.60000000 519.90724256 0.90299922
47.70000000 519.90724256 0.90299922
47.80000000 519.90724256 0.90299922
47.90000000 519.90724256 0.90299922
48.00000000 519.90724256 0.90299922
48.10000000 519.90724256 0.90299922
48.20000000 519.90724256 0.90299922
48.30000000 519.90724256 0.90299922
48.40000000 519.90724256 0.90299922
48.50000000 519.91334856 0.90300982
48.60000000 519.91334856 0.90300982
48.70000000 519.91334856 0.90300982
48.80000000 519.91334856 0.90300982
48.90000000 519.91499592 0.90301269
49.00000000 519.91499592 0.90301269
49.10000000 519.91499592 0.90301269
49.20000000 519.91499592 0.90301269
49.30000000 519.91499592 0.90301269
49.40000000 519.91499592 0.90301269
49.50000000 519.91499592 0.90301269
49.60000000 519.91499592 0.90301269
49.70000000 519.91499592 0.90301269
49.80000000 519.91499592 0.90301269
49.90000000 519.91499592 0.90301269
50.00000000 519.91499592 0.90301269
50.10000000 519.91499592 0.90301269
50.20000000 519.91499592 0.90301269
50.30000000 519.91499592 0.90301269
50.40000000 519.91630400 0.90301496
50.50000000 519.91630400 0.90301496
50.60000000 519.91630400 0.90301496
50.70000000 519.91983944 0.90302110
50.80000000 519.91983944 0.90302110
50.90000000 519.91983944 0.90302110
51.00000000 519.91983944 0.90302110
51.10000000 519.91983944 0.90302110
51.20000000 519.91983944 0.90302110
51.30000000 519.91983944 0.90302110
51.40000000 519.91983944 0.90302110
51.50000000 519.91983944 0.90302110
51.60000000 519.91983944 0.90302110
51.70000000 519.91983944 0.90302110
51.80000000 519.94885000 0.90307148
51.90000000 519.94885000 0.90307148
52.00000000 519.94885000 0.90307148
52.10000000 519.94885000 0.90307148
52.20000000 519.94885000 0.90307148
52.30000000 519.94885000 0.90307148
52.40000000 519.94885000 0.90307148
52.50000000 519.94885000 0.90307148
52.60000000 520.02775896 0.90320854
52.70000000 520.02775896 0.90320854
52.80000000 520.02775896 0.90320854
52.90000000 520.02775896 0.90320854
53.00000000 520.02775896 0.90320854
53.10000000 520.02775896 0.90320854
53.20000000 520.02895056 0.90321061
53.30000000 520.02895056 0.90321061
53.40000000 520.02895056 0.90321061
53.50000000 520.02895056 0.90321061
53.60000000 520.02895056 0.90321061
53.70000000 520.03158912 0.90321519
53.80000000 520.03158912 0.90321519
53.90000000 520.03158912 0.90321519
54.00000000 520.03158912 0.90321519
54.10000000 520.03158912 0.90321519
54.20000000 520.03158912 0.90321519
54.30000000 520.03158912 0.90321519
54.40000000 520.03158912 0.90321519
54.50000000 520.03158912 0.90321519
54.60000000 520.03158912 0.90321519
54.70000000 520.03158912 0.90321519
54.80000000 520.03158912 0.90321519
54.90000000 520.03491144 0.90322096
55.00000000 520.03491144 0.90322096
55.10000000 520.03491144 0.90322096
55.20000000 520.04298488 0.90323498
55.30000000 520.04298488 0.90323498
55.40000000 520.04298488 0.90323498
55.50000000 520.04298488 0.90323498
