# Theta (deg), Enclosed Intensity, Normalized Enclosed Intensity
0.00000000 0.00000000 0.00000000
0.10000000 11.81971628 0.01974978
0.20000000 19.64091020 0.03281835
0.30000000 60.13398344 0.10047897
0.40000000 83.83795864 0.14008637
0.50000000 106.34656864 0.17769641
0.60000000 148.93498088 0.24885817
0.70000000 164.68594768 0.27517674
0.80000000 176.10570340 0.29425822
0.90000000 184.01251084 0.30746985
1.00000000 214.85180004 0.35899978
1.10000000 234.02618732 0.39103861
1.20000000 243.99874212 0.40770193
1.30000000 243.99874212 0.40770193
1.40000000 255.83447140 0.42747847
1.50000000 263.62814884 0.44050107
1.60000000 294.22610980 0.49162776
1.70000000 294.22610980 0.49162776
1.80000000 302.11343084 0.50480682
1.90000000 306.83839452 0.51270185
2.00000000 306.83839452 0.51270185
2.10000000 306.83839452 0.51270185
2.20000000 306.83839452 0.51270185
2.30000000 306.83839452 0.51270185
2.40000000 314.33898460 0.52523472
2.50000000 314.33898460 0.52523472
2.60000000 315.31985892 0.52687369
2.70000000 323.18024900 0.54000775
2.80000000 325.88832956 0.54453273
2.90000000 332.30062884 0.55524716
3.00000000 343.67089980 0.57424595
3.10000000 351.35203268 0.58708050
3.20000000 351.35203268 0.58708050
3.30000000 355.24245292 0.59358107
3.40000000 355.24245292 0.59358107
3.50000000 362.46343412 0.60564674
3.60000000 377.03105988 0.62998805
3.70000000 377.03105988 0.62998805
3.80000000 384.70515116 0.64281083
3.90000000 391.59924572 0.65433030
4.00000000 397.91310308 0.66488024
4.10000000 397.91310308 0.66488024
4.20000000 397.91310308 0.66488024
4.30000000 408.72392292 0.68294423
4.40000000 419.85779392 0.70154802
4.50000000 419.85779392 0.70154802
4.60000000 427.14897232 0.71373098
4.70000000 427.14897232 0.71373098
4.80000000 432.34102416 0.72240648
4.90000000 432.34102416 0.72240648
5.00000000 432.34102416 0.72240648
5.10000000 432.34102416 0.72240648
5.20000000 432.34102416 0.72240648
5.30000000 432.34102416 0.72240648
5.40000000 432.34102416 0.72240648
5.50000000 432.34102416 0.72240648
5.60000000 452.98204368 0.75689593
5.70000000 452.98204368 0.75689593
5.80000000 452.98204368 0.75689593
5.90000000 456.34952000 0.76252271
6.00000000 456.34952000 0.76252271
6.10000000 456.34952000 0.76252271
6.20000000 465.35661184 0.77757282
6.30000000 465.35661184 0.77757282
6.40000000 479.42471296 0.80107947
6.50000000 479.42471296 0.80107947
6.60000000 479.42471296 0.80107947
6.70000000 486.22524016 0.81244259
6.80000000 486.22524016 0.81244259
6.90000000 491.34046200 0.82098971
7.00000000 491.34046200 0.82098971
7.10000000 491.34046200 0.82098971
7.20000000 491.34046200 0.82098971
7.30000000 491.34046200 0.82098971
7.40000000 491.34046200 0.82098971
7.50000000 491.34046200 0.82098971
7.60000000 491.34046200 0.82098971
7.70000000 491.34046200 0.82098971
7.80000000 491.34046200 0.82098971
7.90000000 491.34046200 0.82098971
8.00000000 491.34046200 0.82098971
8.10000000 491.34046200 0.82098971
8.20000000 491.34046200 0.82098971
8.30000000 491.34046200 0.82098971
8.40000000 493.42721560 0.82447651
8.50000000 493.42721560 0.82447651
8.60000000 493.42721560 0.82447651
8.70000000 504.41348200 0.84283366
8.80000000 504.41348200 0.84283366
8.90000000 507.45860552 0.84792181
9.00000000 512.07434256 0.85563433
9.10000000 518.54587648 0.86644773
9.20000000 518.54587648 0.86644773
9.30000000 522.31672488 0.87274851
9.40000000 522.31672488 0.87274851
9.50000000 522.31672488 0.87274851
9.60000000 522.31672488 0.87274851
9.70000000 522.31672488 0.87274851
9.80000000 522.31672488 0.87274851
9.90000000 522.31672488 0.87274851
10.00000000 522.31672488 0.87274851
10.10000000 522.31672488 0.87274851
10.20000000 522.31672488 0.87274851
10.30000000 522.31672488 0.87274851
10.40000000 522.36043888 0.87282155
10.50000000 522.36043888 0.87282155
10.60000000 522.36043888 0.87282155
10.70000000 522.36043888 0.87282155
10.80000000 522.36043888 0.87282155
10.90000000 522.36043888 0.87282155
11.00000000 522.36043888 0.87282155
11.10000000 522.36043888 0.87282155
11.20000000 522.36043888 0.87282155
11.30000000 522.36043888 0.87282155
11.40000000 522.36043888 0.87282155
11.50000000 522.36043888 0.87282155
11.60000000 522.36043888 0.87282155
11.70000000 522.36043888 0.87282155
11.80000000 522.36043888 0.87282155
11.90000000 522.36043888 0.87282155
12.00000000 522.36043888 0.87282155
12.10000000 522.54231016 0.87312545
12.20000000 522.54231016 0.87312545
12.30000000 522.54231016 0.87312545
12.40000000 522.54231016 0.87312545
12.50000000 522.54231016 0.87312545
12.60000000 522.54231016 0.87312545
12.70000000 522.54231016 0.87312545
12.80000000 522.54231016 0.87312545
12.90000000 522.54231016 0.87312545
13.00000000 522.65684024 0.87331682
13.10000000 522.65684024 0.87331682
13.20000000 522.65684024 0.87331682
13.30000000 522.65684024 0.87331682
13.40000000 522.65684024 0.87331682
13.50000000 522.65684024 0.87331682
13.60000000 522.65684024 0.87331682
13.70000000 522.65684024 0.87331682
13.80000000 522.65684024 0.87331682
13.90000000 522.65684024 0.87331682
14.00000000 522.65684024 0.87331682
14.10000000 522.65684024 0.87331682
14.20000000 522.65684024 0.87331682
14.30000000 522.65684024 0.87331682
14.40000000 522.65684024 0.87331682
14.50000000 522.65684024 0.87331682
14.60000000 522.65684024 0.87331682
14.70000000 522.65684024 0.87331682
14.80000000 522.65684024 0.87331682
14.90000000 522.65684024 0.87331682
15.00000000 522.65684024 0.87331682
15.10000000 522.65684024 0.87331682
15.20000000 522.67335176 0.87334441
15.30000000 522.67335176 0.87334441
15.40000000 522.67335176 0.87334441
15.50000000 522.67335176 0.87334441
15.60000000 526.17091752 0.87918855
15.70000000 526.17091752 0.87918855
15.80000000 526.17091752 0.87918855
15.90000000 526.17091752 0.87918855
16.00000000 526.17091752 0.87918855
16.10000000 526.17091752 0.87918855
16.20000000 526.17091752 0.87918855
16.30000000 526.18120504 0.87920574
16.40000000 526.18120504 0.87920574
16.50000000 526.18120504 0.87920574
16.60000000 526.18120504 0.87920574
16.70000000 526.18120504 0.87920574
16.80000000 526.18120504 0.87920574
16.90000000 526.18120504 0.87920574
17.00000000 526.18120504 0.87920574
17.10000000 526.18120504 0.87920574
17.20000000 526.18120504 0.87920574
17.30000000 526.18120504 0.87920574
17.40000000 526.18120504 0.87920574
17.50000000 526.18120504 0.87920574
17.60000000 526.18120504 0.87920574
17.70000000 526.18120504 0.87920574
17.80000000 526.18120504 0.87920574
17.90000000 526.18120504 0.87920574
18.00000000 530.44508696 0.88633034
18.10000000 530.70927064 0.88677177
18.20000000 530.70927064 0.88677177
18.30000000 530.70927064 0.88677177
18.40000000 530.70927064 0.88677177
18.50000000 530.70927064 0.88677177
18.60000000 530.70927064 0.88677177
18.70000000 530.70927064 0.88677177
18.80000000 530.70927064 0.88677177
18.90000000 530.70927064 0.88677177
19.00000000 530.70927064 0.88677177
19.10000000 530.70927064 0.88677177
19.20000000 530.70927064 0.88677177
19.30000000 530.70927064 0.88677177
19.40000000 530.70927064 0.88677177
19.50000000 531.13400880 0.88748147
19.60000000 531.13400880 0.88748147
19.70000000 531.13400880 0.88748147
19.80000000 531.13400880 0.88748147
19.90000000 531.13400880 0.88748147
20.00000000 531.13400880 0.88748147
20.10000000 531.13400880 0.88748147
20.20000000 531.13400880 0.88748147
20.30000000 531.13400880 0.88748147
20.40000000 531.13400880 0.88748147
20.50000000 531.13400880 0.88748147
20.60000000 531.15354400 0.88751411
20.70000000 531.15354400 0.88751411
20.80000000 531.21469112 0.88761629
20.90000000 531.21469112 0.88761629
21.00000000 531.21469112 0.88761629
21.10000000 531.21469112 0.88761629
21.20000000 531.21469112 0.88761629
21.30000000 531.21469112 0.88761629
21.40000000 531.24576776 0.88766821
21.50000000 531.24576776 0.88766821
21.60000000 531.24576776 0.88766821
21.70000000 531.26994272 0.88770861
21.80000000 531.26994272 0.88770861
21.90000000 531.26994272 0.88770861
22.00000000 531.26994272 0.88770861
22.10000000 531.26994272 0.88770861
22.20000000 531.26994272 0.88770861
22.30000000 531.26994272 0.88770861
22.40000000 531.26994272 0.88770861
22.50000000 531.26994272 0.88770861
22.60000000 531.26994272 0.88770861
22.70000000 531.26994272 0.88770861
22.80000000 531.26994272 0.88770861
22.90000000 531.26994272 0.88770861
23.00000000 531.26994272 0.88770861
23.10000000 531.26994272 0.88770861
23.20000000 531.26994272 0.88770861
23.30000000 531.26994272 0.88770861
23.40000000 531.26994272 0.88770861
23.50000000 532.14733248 0.88917465
23.60000000 532.14733248 0.88917465
23.70000000 532.14733248 0.88917465
23.80000000 532.14733248 0.88917465
23.90000000 532.14733248 0.88917465
24.00000000 532.14733248 0.88917465
24.10000000 532.14733248 0.88917465
24.20000000 532.14733248 0.88917465
24.30000000 532.14733248 0.88917465
24.40000000 532.14733248 0.88917465
24.50000000 532.14733248 0.88917465
24.60000000 537.59394240 0.89827549
24.70000000 537.59394240 0.89827549
24.80000000 537.59394240 0.89827549
24.90000000 537.59394240 0.89827549
25.00000000 537.59394240 0.89827549
25.10000000 537.74787728 0.89853270
25.20000000 537.74787728 0.89853270
25.30000000 537.74787728 0.89853270
25.40000000 537.75028328 0.89853673
25.50000000 537.75028328 0.89853673
25.60000000 537.75028328 0.89853673
25.70000000 537.75028328 0.89853673
25.80000000 537.75028328 0.89853673
25.90000000 537.75028328 0.89853673
26.00000000 537.75028328 0.89853673
26.10000000 537.75028328 0.89853673
26.20000000 537.75028328 0.89853673
26.30000000 537.75028328 0.89853673
26.40000000 537.75028328 0.89853673
26.50000000 537.75028328 0.89853673
26.60000000 537.75028328 0.89853673
26.70000000 537.75028328 0.89853673
26.80000000 537.76420736 0.89855999
26.90000000 537.76420736 0.89855999
27.00000000 537.76420736 0.89855999
27.10000000 537.76420736 0.89855999
27.20000000 537.76420736 0.89855999
27.30000000 537.76420736 0.89855999
27.40000000 537.76420736 0.89855999
27.50000000 537.76420736 0.89855999
27.60000000 537.78916392 0.89860169
27.70000000 537.78916392 0.89860169
27.80000000 537.78916392 0.89860169
27.90000000 540.76203584 0.90356912
28.00000000 540.76203584 0.90356912
28.10000000 540.77651280 0.90359331
28.20000000 540.77651280 0.90359331
28.30000000 541.30608304 0.90447818
28.40000000 541.30608304 0.90447818
28.50000000 541.30608304 0.90447818
28.60000000 541.30608304 0.90447818
28.70000000 541.30608304 0.90447818
28.80000000 541.31020496 0.90448506
28.90000000 541.31020496 0.90448506
29.00000000 541.31020496 0.90448506
29.10000000 541.31020496 0.90448506
29.20000000 541.31020496 0.90448506
29.30000000 541.31020496 0.90448506
29.40000000 541.31020496 0.90448506
29.50000000 541.31020496 0.90448506
29.60000000 541.31020496 0.90448506
29.70000000 541.31020496 0.90448506
29.80000000 541.31908424 0.90449990
29.90000000 541.31908424 0.90449990
30.00000000 541.31908424 0.90449990
30.10000000 541.38517800 0.90461034
30.20000000 541.38517800 0.90461034
30.30000000 541.38517800 0.90461034
30.40000000 541.38517800 0.90461034
30.50000000 541.46531480 0.90474424
30.60000000 541.56441032 0.90490982
30.70000000 541.56441032 0.90490982
30.80000000 541.56441032 0.90490982
30.90000000 541.56441032 0.90490982
31.00000000 541.56441032 0.90490982
31.10000000 541.56441032 0.90490982
31.20000000 541.56441032 0.90490982
31.30000000 541.56441032 0.90490982
31.40000000 541.56441032 0.90490982
31.50000000 541.59573088 0.90496215
31.60000000 541.59573088 0.90496215
31.70000000 541.59573088 0.90496215
31.80000000 541.59573088 0.90496215
31.90000000 541.62255848 0.90500698
32.00000000 541.62255848 0.90500698
32.10000000 541.62540848 0.90501174
32.20000000 541.62540848 0.90501174
32.30000000 541.62540848 0.90501174
32.40000000 541.65584784 0.90506260
32.50000000 541.65584784 0.90506260
32.60000000 541.65584784 0.90506260
32.70000000 541.65584784 0.90506260
32.80000000 541.65584784 0.90506260
32.90000000 541.71366736 0.90515922
33.00000000 541.71366736 0.90515922
33.10000000 541.71366736 0.90515922
33.20000000 541.71366736 0.90515922
33.30000000 541.71366736 0.90515922
33.40000000 541.71366736 0.90515922
33.50000000 541.84246152 0.90537442
33.60000000 541.84246152 0.90537442
33.70000000 541.84246152 0.90537442
33.80000000 541.85200072 0.90539036
33.90000000 541.85200072 0.90539036
34.00000000 541.85200072 0.90539036
34.10000000 541.85200072 0.90539036
34.20000000 541.85697936 0.90539868
34.30000000 541.87616032 0.90543073
34.40000000 541.87616032 0.90543073
34.50000000 541.87616032 0.90543073
34.60000000 541.88815664 0.90545077
34.70000000 541.96549416 0.90558000
34.80000000 541.96549416 0.90558000
34.90000000 541.96549416 0.90558000
35.00000000 541.97717296 0.90559951
35.10000000 541.97717296 0.90559951
35.20000000 541.97717296 0.90559951
35.30000000 541.98785984 0.90561737
35.40000000 541.99787384 0.90563410
35.50000000 542.24546552 0.90604781
35.60000000 542.24546552 0.90604781
35.70000000 542.37585808 0.90626568
35.80000000 542.41459192 0.90633040
35.90000000 542.52708304 0.90651837
36.00000000 542.52708304 0.90651837
36.10000000 542.53094304 0.90652482
36.20000000 542.53094304 0.90652482
36.30000000 542.54216472 0.90654357
36.40000000 542.67494744 0.90676544
36.50000000 542.67494744 0.90676544
36.60000000 542.67494744 0.90676544
36.70000000 542.67494744 0.90676544
36.80000000 542.67494744 0.90676544
36.90000000 542.67494744 0.90676544
37.00000000 542.67494744 0.90676544
37.10000000 542.67685080 0.90676862
37.20000000 542.67685080 0.90676862
37.30000000 542.67685080 0.90676862
37.40000000 542.67685080 0.90676862
37.50000000 542.73557112 0.90686673
37.60000000 542.73557112 0.90686673
37.70000000 542.73557112 0.90686673
37.80000000 542.73557112 0.90686673
37.90000000 542.73557112 0.90686673
38.00000000 542.73557112 0.90686673
38.10000000 542.73641872 0.90686815
38.20000000 542.73641872 0.90686815
38.30000000 542.73641872 0.90686815
38.40000000 542.73832032 0.90687133
38.50000000 542.73832032 0.90687133
38.60000000 542.73832032 0.90687133
38.70000000 542.73832032 0.90687133
38.80000000 542.73832032 0.90687133
38.90000000 542.73832032 0.90687133
39.00000000 542.73832032 0.90687133
39.10000000 542.73832032 0.90687133
39.20000000 542.73832032 0.90687133
39.30000000 542.73832032 0.90687133
39.40000000 542.73832032 0.90687133
39.50000000 542.74031136 0.90687465
39.60000000 542.74031136 0.90687465
39.70000000 542.74031136 0.90687465
39.80000000 542.74031136 0.90687465
39.90000000 542.74031136 0.90687465
40.00000000 542.74031136 0.90687465
40.10000000 542.77970088 0.90694047
40.20000000 542.77970088 0.90694047
40.30000000 542.77970088 0.90694047
40.40000000 542.77970088 0.90694047
40.50000000 542.77970088 0.90694047
40.60000000 542.77970088 0.90694047
40.70000000 542.77970088 0.90694047
40.80000000 542.78276672 0.90694559
40.90000000 542.78276672 0.90694559
41.00000000 542.78276672 0.90694559
41.10000000 542.78276672 0.90694559
41.20000000 542.78276672 0.90694559
41.30000000 543.46489768 0.90808538
41.40000000 543.46489768 0.90808538
41.50000000 543.46489768 0.90808538
41.60000000 543.46489768 0.90808538
41.70000000 543.46489768 0.90808538
41.80000000 543.46489768 0.90808538
41.90000000 543.46489768 0.90808538
42.00000000 543.46489768 0.90808538
42.10000000 543.46489768 0.90808538
42.20000000 543.46489768 0.90808538
42.30000000 543.46489768 0.90808538
42.40000000 543.47046104 0.90809467
42.50000000 543.47046104 0.90809467
42.60000000 543.47046104 0.90809467
42.70000000 543.47046104 0.90809467
42.80000000 543.47046104 0.90809467
42.90000000 543.47046104 0.90809467
43.00000000 543.47046104 0.90809467
43.10000000 543.47046104 0.90809467
43.20000000 543.47046104 0.90809467
43.30000000 543.47046104 0.90809467
43.40000000 543.47046104 0.90809467
43.50000000 543.47046104 0.90809467
43.60000000 543.47046104 0.90809467
43.70000000 543.47046104 0.90809467
43.80000000 543.47046104 0.90809467
43.90000000 543.47489540 0.90810208
44.00000000 543.47489540 0.90810208
44.10000000 543.47489540 0.90810208
44.20000000 543.47489540 0.90810208
44.30000000 543.47489540 0.90810208
44.40000000 543.47489540 0.90810208
44.50000000 543.47489540 0.90810208
44.60000000 543.47489540 0.90810208
44.70000000 543.47489540 0.90810208
44.80000000 543.48118724 0.90811260
44.90000000 543.48118724 0.90811260
45.00000000 543.48118724 0.90811260
45.10000000 543.48207260 0.90811408
45.20000000 543.48207260 0.90811408
45.30000000 543.48207260 0.90811408
45.40000000 543.48207260 0.90811408
45.50000000 543.48207260 0.90811408
45.60000000 543.50752836 0.90815661
45.70000000 543.50752836 0.90815661
45.80000000 543.50752836 0.90815661
45.90000000 543.50752836 0.90815661
46.00000000 543.50752836 0.90815661
46.10000000 543.50752836 0.90815661
46.20000000 543.50752836 0.90815661
46.30000000 543.50752836 0.90815661
46.40000000 543.50752836 0.90815661
46.50000000 543.50752836 0.90815661
46.60000000 543.50752836 0.90815661
46.70000000 543.51294324 0.90816566
46.80000000 543.51294324 0.90816566
46.90000000 543.51294324 0.90816566
47.00000000 543.51294324 0.90816566
47.10000000 543.51294324 0.90816566
47.20000000 543.51294324 0.90816566
47.30000000 543.51294324 0.90816566
47.40000000 543.51294324 0.90816566
47.50000000 543.51294324 0.90816566
47.60000000 543.51294324 0.90816566
47.70000000 543.51294324 0.90816566
47.80000000 543.51294324 0.90816566
47.90000000 543.51294324 0.90816566
48.00000000 543.51294324 0.90816566
48.10000000 543.51294324 0.90816566
48.20000000 543.51294324 0.90816566
48.30000000 543.51294324 0.90816566
48.40000000 543.51294324 0.90816566
48.50000000 543.51294324 0.90816566
48.60000000 543.51294324 0.90816566
48.70000000 543.51294324 0.90816566
48.80000000 543.51294324 0.90816566
48.90000000 543.51901620 0.90817581
49.00000000 543.51901620 0.90817581
49.10000000 543.51901620 0.90817581
49.20000000 543.51901620 0.90817581
49.30000000 543.51901620 0.90817581
49.40000000 543.51901620 0.90817581
49.50000000 543.51901620 0.90817581
49.60000000 543.51901620 0.90817581
49.70000000 543.51901620 0.90817581
49.80000000 543.51901620 0.90817581
49.90000000 543.51901620 0.90817581
50.00000000 543.51901620 0.90817581
50.10000000 543.51901620 0.90817581
50.20000000 543.51901620 0.90817581
50.30000000 543.51901620 0.90817581
50.40000000 543.51901620 0.90817581
50.50000000 543.52211852 0.90818099
50.60000000 543.52211852 0.90818099
50.70000000 543.52211852 0.90818099
50.80000000 543.52211852 0.90818099
50.90000000 543.52451404 0.90818499
51.00000000 543.52451404 0.90818499
51.10000000 543.52451404 0.90818499
51.20000000 543.52451404 0.90818499
51.30000000 543.52451404 0.90818499
51.40000000 543.52451404 0.90818499
51.50000000 543.52451404 0.90818499
51.60000000 543.52451404 0.90818499
51.70000000 543.52451404 0.90818499
51.80000000 543.52451404 0.90818499
51.90000000 543.52451404 0.90818499
52.00000000 543.52451404 0.90818499
52.10000000 543.52451404 0.90818499
52.20000000 543.52451404 0.90818499
52.30000000 543.52451404 0.90818499
52.40000000 543.52451404 0.90818499
52.50000000 543.52451404 0.90818499
52.60000000 543.52451404 0.90818499
52.70000000 543.57069068 0.90826215
52.80000000 543.57069068 0.90826215
52.90000000 543.57069068 0.90826215
53.00000000 543.57069068 0.90826215
53.10000000 543.57069068 0.90826215
53.20000000 543.57069068 0.90826215
53.30000000 543.57268116 0.90826548
53.40000000 543.57268116 0.90826548
53.50000000 543.57268116 0.90826548
53.60000000 543.57268116 0.90826548
53.70000000 543.57268116 0.90826548
53.80000000 543.57309944 0.90826617
53.90000000 543.57309944 0.90826617
54.00000000 543.57309944 0.90826617
54.10000000 543.57309944 0.90826617
54.20000000 543.57309944 0.90826617
54.30000000 543.57309944 0.90826617
54.40000000 543.57309944 0.90826617
54.50000000 543.57309944 0.90826617
54.60000000 543.57309944 0.90826617
54.70000000 543.57309944 0.90826617
54.80000000 543.57309944 0.90826617
54.90000000 543.57309944 0.90826617
55.00000000 543.57309944 0.90826617
55.10000000 543.57309944 0.90826617
55.20000000 543.57309944 0.90826617
55.30000000 543.57514360 0.90826959
55.40000000 543.57514360 0.90826959
55.50000000 543.57514360 0.90826959
